# wavelength(micron) (rp/rs)^2 std((rp/rs)^2)
5.31460000e-01 2.12656000e-02 1.99600000e-04
5.39120000e-01 2.13927000e-02 1.88100000e-04
5.45480000e-01 2.12592000e-02 1.55200000e-04
5.50420000e-01 2.14690000e-02 1.92900000e-04
5.53760000e-01 2.14036000e-02 1.75000000e-04
5.57170000e-01 2.10268000e-02 1.61700000e-04
5.60660000e-01 2.12604000e-02 1.52300000e-04
5.64200000e-01 2.12533000e-02 1.46100000e-04
5.67800000e-01 2.17132000e-02 1.37900000e-04
5.71470000e-01 2.13586000e-02 1.29700000e-04
5.75220000e-01 2.13257000e-02 1.23000000e-04
5.79040000e-01 2.11513000e-02 1.16300000e-04
5.82920000e-01 2.14615000e-02 1.12800000e-04
5.86880000e-01 2.14467000e-02 1.09800000e-04
5.90930000e-01 2.19217000e-02 1.07600000e-04
5.95060000e-01 2.15242000e-02 8.32000000e-05
5.99260000e-01 2.15746000e-02 9.92000000e-05
6.03550000e-01 2.14019000e-02 9.82000000e-05
6.07920000e-01 2.12355000e-02 9.40000000e-05
6.12390000e-01 2.11343000e-02 9.19000000e-05
6.16960000e-01 2.11313000e-02 9.17000000e-05
6.21620000e-01 2.11546000e-02 8.85000000e-05
6.26390000e-01 2.11992000e-02 8.58000000e-05
6.31250000e-01 2.11963000e-02 8.34000000e-05
6.36220000e-01 2.10663000e-02 8.11000000e-05
6.41300000e-01 2.08758000e-02 7.90000000e-05
6.46490000e-01 2.09688000e-02 7.68000000e-05
6.51800000e-01 2.08809000e-02 7.46000000e-05
6.57220000e-01 2.10118000e-02 7.26000000e-05
6.62780000e-01 2.10523000e-02 7.21000000e-05
6.68470000e-01 2.08634000e-02 6.66000000e-05
6.74290000e-01 2.09834000e-02 6.92000000e-05
6.80250000e-01 2.09140000e-02 6.98000000e-05
6.86340000e-01 2.10825000e-02 6.04000000e-05
6.92580000e-01 2.10344000e-02 7.08000000e-05
6.98990000e-01 2.09383000e-02 6.83000000e-05
7.05540000e-01 2.12571000e-02 6.95000000e-05
7.12250000e-01 2.09328000e-02 6.63000000e-05
7.19140000e-01 2.09234000e-02 6.28000000e-05
7.26200000e-01 2.09857000e-02 6.66000000e-05
7.40860000e-01 2.07986000e-02 1.17500000e-04
7.64300000e-01 2.09195000e-02 9.39000000e-05
7.89650000e-01 2.09134000e-02 7.82000000e-05
8.17090000e-01 2.09142000e-02 8.48000000e-05
8.46810000e-01 2.07240000e-02 1.02700000e-04
8.78990000e-01 2.06975000e-02 5.78000000e-05
9.13830000e-01 2.08194000e-02 5.52000000e-05
9.51490000e-01 2.10978000e-02 1.13600000e-04
9.92070000e-01 2.07794000e-02 4.92000000e-05
1.03564000e+00 2.08257000e-02 9.06000000e-05
1.08217000e+00 2.08994000e-02 1.26500000e-04
1.13153000e+00 2.10913000e-02 8.98000000e-05
1.18353000e+00 2.10665000e-02 4.42000000e-05
1.23787000e+00 2.10466000e-02 4.54000000e-05
1.29416000e+00 2.11523000e-02 7.30000000e-05
1.35202000e+00 2.13160000e-02 1.32300000e-04
1.41101000e+00 2.13959000e-02 7.81000000e-05
1.47073000e+00 2.13877000e-02 8.58000000e-05
1.52080000e+00 2.11872000e-02 7.60000000e-05
1.56091000e+00 2.09557000e-02 8.10000000e-05
1.60098000e+00 2.10678000e-02 6.64000000e-05
1.64094000e+00 2.05848000e-02 5.97000000e-05
1.68073000e+00 2.07555000e-02 6.51000000e-05
1.72029000e+00 2.09135000e-02 7.96000000e-05
1.75957000e+00 2.11134000e-02 7.54000000e-05
1.79855000e+00 2.11842000e-02 5.91000000e-05
1.83720000e+00 2.13093000e-02 5.07000000e-05
1.87549000e+00 2.13709000e-02 4.85000000e-05
1.91340000e+00 2.15521000e-02 3.98000000e-05
1.95093000e+00 2.13533000e-02 4.60000000e-05
1.98806000e+00 2.11630000e-02 4.73000000e-05
2.02479000e+00 2.08777000e-02 4.64000000e-05
2.06111000e+00 2.11632000e-02 4.81000000e-05
2.09703000e+00 2.08809000e-02 4.02000000e-05
2.13255000e+00 2.09581000e-02 4.10000000e-05
2.16766000e+00 2.09067000e-02 5.90000000e-05
2.20238000e+00 2.07832000e-02 5.14000000e-05
2.23671000e+00 2.07961000e-02 4.82000000e-05
2.27065000e+00 2.07996000e-02 5.14000000e-05
2.30422000e+00 2.08642000e-02 5.05000000e-05
2.33740000e+00 2.10240000e-02 4.86000000e-05
2.37023000e+00 2.12205000e-02 4.97000000e-05
2.40269000e+00 2.11108000e-02 5.12000000e-05
2.43480000e+00 2.12569000e-02 5.05000000e-05
2.46656000e+00 2.13221000e-02 5.12000000e-05
2.49799000e+00 2.14845000e-02 5.46000000e-05
2.52909000e+00 2.14351000e-02 5.79000000e-05
2.55987000e+00 2.17224000e-02 5.88000000e-05
2.59033000e+00 2.16322000e-02 5.87000000e-05
2.62048000e+00 2.16538000e-02 5.79000000e-05
2.65033000e+00 2.18985000e-02 5.83000000e-05
2.67989000e+00 2.18054000e-02 5.91000000e-05
2.70916000e+00 2.19941000e-02 6.02000000e-05
2.73815000e+00 2.18402000e-02 6.27000000e-05
2.76686000e+00 2.18189000e-02 6.31000000e-05
2.79530000e+00 2.18637000e-02 6.58000000e-05
2.82349000e+00 2.21110000e-02 6.69000000e-05
2.85141000e+00 2.19692000e-02 6.84000000e-05
2.87909000e+00 2.19055000e-02 7.02000000e-05
2.90652000e+00 2.18650000e-02 7.21000000e-05
2.93371000e+00 2.17368000e-02 7.31000000e-05
2.96066000e+00 2.16706000e-02 7.55000000e-05
2.98739000e+00 2.16505000e-02 7.35000000e-05
3.01389000e+00 2.16136000e-02 7.62000000e-05
3.04017000e+00 2.17013000e-02 7.60000000e-05
3.06624000e+00 2.15581000e-02 7.64000000e-05
3.09209000e+00 2.15705000e-02 7.79000000e-05
3.11774000e+00 2.13246000e-02 7.84000000e-05
3.14319000e+00 2.14443000e-02 8.24000000e-05
3.16844000e+00 2.14170000e-02 8.20000000e-05
3.19349000e+00 2.13773000e-02 8.31000000e-05
3.21836000e+00 2.14599000e-02 8.34000000e-05
3.24304000e+00 2.12346000e-02 8.59000000e-05
3.26753000e+00 2.11868000e-02 8.52000000e-05
3.29185000e+00 2.10964000e-02 8.67000000e-05
3.31599000e+00 2.11948000e-02 8.87000000e-05
3.33996000e+00 2.11349000e-02 9.00000000e-05
3.36376000e+00 2.13510000e-02 9.25000000e-05
3.38739000e+00 2.12959000e-02 9.21000000e-05
3.41086000e+00 2.11763000e-02 9.46000000e-05
3.43417000e+00 2.12591000e-02 9.54000000e-05
3.45732000e+00 2.11571000e-02 9.54000000e-05
3.48032000e+00 2.12523000e-02 9.82000000e-05
3.50317000e+00 2.11163000e-02 9.81000000e-05
3.52587000e+00 2.12337000e-02 1.00000000e-04
3.54842000e+00 2.11404000e-02 1.00700000e-04
3.57083000e+00 2.11792000e-02 1.02500000e-04
3.59310000e+00 2.13587000e-02 1.03700000e-04
3.61523000e+00 2.10406000e-02 1.04800000e-04
3.63722000e+00 2.12611000e-02 1.06100000e-04
3.65908000e+00 2.11282000e-02 1.06700000e-04
3.68080000e+00 2.12862000e-02 1.12400000e-04
3.70240000e+00 2.09193000e-02 1.12200000e-04
3.72386000e+00 2.10696000e-02 1.12700000e-04
3.74520000e+00 2.10921000e-02 1.13600000e-04
3.76642000e+00 2.10808000e-02 1.16500000e-04
3.78752000e+00 2.08071000e-02 1.16100000e-04
3.80849000e+00 2.11900000e-02 1.17800000e-04
3.82935000e+00 2.10884000e-02 1.22100000e-04
3.85009000e+00 2.10311000e-02 1.22300000e-04
3.87071000e+00 2.09872000e-02 1.24700000e-04
3.89123000e+00 2.09495000e-02 1.25100000e-04
3.91163000e+00 2.09479000e-02 1.28100000e-04
3.93192000e+00 2.10816000e-02 1.29600000e-04
3.95210000e+00 2.10065000e-02 1.33900000e-04
3.97218000e+00 2.10880000e-02 1.31100000e-04
3.99215000e+00 2.13018000e-02 1.32000000e-04
4.01202000e+00 2.14189000e-02 1.35900000e-04
4.03178000e+00 2.14119000e-02 1.36000000e-04
4.05145000e+00 2.13695000e-02 1.35800000e-04
4.07101000e+00 2.11551000e-02 1.38000000e-04
4.09048000e+00 2.11990000e-02 1.41300000e-04
4.10985000e+00 2.08295000e-02 1.45700000e-04
4.12913000e+00 2.10313000e-02 1.43600000e-04
4.14831000e+00 2.11223000e-02 1.44100000e-04
4.16740000e+00 2.13870000e-02 1.45700000e-04
4.18640000e+00 2.12814000e-02 1.46700000e-04
4.20530000e+00 2.15333000e-02 1.50600000e-04
4.22412000e+00 2.18501000e-02 1.50400000e-04
4.24285000e+00 2.19267000e-02 1.51800000e-04
4.26149000e+00 2.23747000e-02 1.53500000e-04
4.28005000e+00 2.24901000e-02 1.54600000e-04
4.29852000e+00 2.24815000e-02 1.56200000e-04
4.31690000e+00 2.25534000e-02 1.59300000e-04
4.33521000e+00 2.25417000e-02 1.60200000e-04
4.35343000e+00 2.27630000e-02 1.64200000e-04
4.37157000e+00 2.26557000e-02 1.68200000e-04
4.38963000e+00 2.26735000e-02 1.69000000e-04
4.40761000e+00 2.26739000e-02 1.72600000e-04
4.42552000e+00 2.27389000e-02 1.73100000e-04
4.44335000e+00 2.23932000e-02 1.75200000e-04
4.46110000e+00 2.18090000e-02 1.74700000e-04
4.47877000e+00 2.22239000e-02 1.78300000e-04
4.49637000e+00 2.22644000e-02 1.78700000e-04
4.51390000e+00 2.17991000e-02 1.81400000e-04
4.53136000e+00 2.15768000e-02 1.83900000e-04
4.54874000e+00 2.19939000e-02 1.88900000e-04
4.56605000e+00 2.17339000e-02 1.90000000e-04
4.58759000e+00 2.16542000e-02 1.57500000e-04
4.61330000e+00 2.15699000e-02 1.62600000e-04
4.63885000e+00 2.14932000e-02 1.60400000e-04
4.66425000e+00 2.14693000e-02 1.62000000e-04
4.68950000e+00 2.15992000e-02 1.64400000e-04
4.71461000e+00 2.17604000e-02 1.68300000e-04
4.73957000e+00 2.16413000e-02 1.72300000e-04
4.76438000e+00 2.16688000e-02 1.69900000e-04
4.78906000e+00 2.16530000e-02 1.70200000e-04
4.81360000e+00 2.16525000e-02 1.77800000e-04
4.83801000e+00 2.14724000e-02 1.85400000e-04
4.86228000e+00 2.15493000e-02 1.82700000e-04
4.88642000e+00 2.14418000e-02 1.81000000e-04
4.91043000e+00 2.13038000e-02 1.89200000e-04
4.93431000e+00 2.14796000e-02 1.90800000e-04
4.95806000e+00 2.15849000e-02 1.92000000e-04
4.98169000e+00 2.14684000e-02 1.92100000e-04
5.00520000e+00 2.13109000e-02 1.98500000e-04
5.03247000e+00 2.11256000e-02 1.73600000e-04
5.06344000e+00 2.15314000e-02 1.77200000e-04
5.09420000e+00 2.12889000e-02 1.88000000e-04
5.12476000e+00 2.13304000e-02 1.84800000e-04
5.15511000e+00 2.14710000e-02 1.90000000e-04
5.18527000e+00 2.12517000e-02 1.94500000e-04
5.21524000e+00 2.12887000e-02 1.91000000e-04
5.24501000e+00 2.15143000e-02 1.98300000e-04
5.27460000e+00 2.14526000e-02 1.98200000e-04
5.30766000e+00 2.12378000e-02 1.84500000e-04
5.34413000e+00 2.11674000e-02 2.09600000e-04
